# XDI/1.0 Athena/0.9.26
# Element.edge:                  L3
# Element.symbol:                Ir
# Column.1:                      k inverse Angstrom
# Column.2:                      chi
# Column.3:                      chik
# Column.4:                      chik2
# Column.5:                      chik3
# Column.6:                      window
# Column.7:                      energy
# Athena.e0:                     11215
# Athena.eshift:                 0
# Athena.rbkg:                   1.0
# Athena.importance:             1
# Athena.standard:               None
# Athena.bkg_kweight:            2
# Athena.edge_step:              0.6163864
# Athena.fixed_step:             no
# Athena.pre_edge_range:         -300 -100
# Athena.pre_edge_line:          6.740442 - 0.000455709 * E
# Athena.normalization_range:    100 1390
# Athena.post_edge_polynomial:   10.294595 - 0.000971746 * E + 2.26560314e-008 * E^2 + 0 * E^3
# Athena.spline_range_energy:    0.000 1390.000
# Athena.clamps:                 0 24
# Athena.spline_range_k:         0.000 19.101
# Athena.kweight:                2
# Athena.window:                 Sine
# Athena.phase_correction:       no
# Athena.k_range:                0 18.6
# Athena.dk:                     1
# Athena.r_range:                1 3
# Athena.dr:                     0.0
# Athena.window:                 hanning
# Athena.plot_multiplier:        1
# Athena.y_offset:               0
# ///
#------------------------
#  k chi chik chik2 chik3 win energy
  0.0000000       -1.2302048       -0.0000000       -0.0000000       -0.0000000       0.15191404        11215.000
  0.50000000E-01   -1.1727019      -0.58635096E-01  -0.29317548E-02  -0.14658774E-03   0.15944627        11215.010
  0.10000000       -1.1151990      -0.11151990      -0.11151990E-01  -0.11151990E-02   0.16696924        11215.038
  0.15000000       -1.0576961      -0.15865441      -0.23798162E-01  -0.35697243E-02   0.17448249        11215.086
  0.20000000       -1.0001932      -0.20003863      -0.40007727E-01  -0.80015454E-02   0.18198560        11215.152
  0.25000000      -0.94269026      -0.23567256      -0.58918141E-01  -0.14729535E-01   0.18947813        11215.238
  0.30000000      -0.88518734      -0.26555620      -0.79666861E-01  -0.23900058E-01   0.19695964        11215.343
  0.35000000      -0.82768443      -0.28968955      -0.10139134      -0.35486970E-01   0.20442970        11215.467
  0.40000000      -0.77018152      -0.30807261      -0.12322904      -0.49291617E-01   0.21188788        11215.610
  0.45000000      -0.69072819      -0.31082769      -0.13987246      -0.62942607E-01   0.21933373        11215.772
  0.50000000      -0.60791423      -0.30395711      -0.15197856      -0.75989278E-01   0.22676683        11215.952
  0.55000000      -0.50643941      -0.27854168      -0.15319792      -0.84258857E-01   0.23418675        11216.153
  0.60000000      -0.40167205      -0.24100323      -0.14460194      -0.86761162E-01   0.24159305        11216.372
  0.65000000      -0.29651381      -0.19273398      -0.12527709      -0.81430105E-01   0.24898530        11216.610
  0.70000000      -0.19806732      -0.13864712      -0.97052987E-01  -0.67937091E-01   0.25636308        11216.867
  0.75000000      -0.10069277      -0.75519578E-01  -0.56639684E-01  -0.42479763E-01   0.26372595        11217.143
  0.80000000      -0.41492110E-02  -0.33193688E-02  -0.26554950E-02  -0.21243960E-02   0.27107348        11217.438
  0.85000000       0.73881584E-01   0.62799347E-01   0.53379445E-01   0.45372528E-01   0.27840526        11217.753
  0.90000000       0.13013134       0.11711820       0.10540638       0.94865744E-01   0.28572084        11218.086
  0.95000000       0.16545164       0.15717906       0.14932010       0.14185410       0.29301982        11218.439
  1.0000000       0.18143444       0.18143444       0.18143444       0.18143444       0.30030176        11218.810
  1.0500000       0.17531189       0.18407748       0.19328136       0.20294543       0.30756623        11219.201
  1.1000000       0.16570601       0.18227661       0.20050427       0.22055470       0.31481282        11219.610
  1.1500000       0.14701738       0.16906999       0.19443048       0.22359506       0.32204111        11220.039
  1.2000000       0.11441194       0.13729433       0.16475320       0.19770383       0.32925068        11220.486
  1.2500000       0.94854730E-01   0.11856841       0.14821052       0.18526314       0.33644110        11220.953
  1.3000000       0.72545403E-01   0.94309025E-01   0.12260173       0.15938225       0.34361196        11221.439
  1.3500000       0.55538851E-01   0.74977449E-01   0.10121956       0.13664640       0.35076283        11221.944
  1.4000000       0.37115414E-01   0.51961579E-01   0.72746211E-01   0.10184470       0.35789332        11222.468
  1.4500000       0.17466962E-01   0.25327095E-01   0.36724288E-01   0.53250218E-01   0.36500299        11223.010
  1.5000000       0.84459797E-02   0.12668970E-01   0.19003454E-01   0.28505181E-01   0.37209145        11223.572
  1.5500000       0.15453867E-02   0.23953493E-02   0.37127915E-02   0.57548268E-02   0.37915826        11224.153
  1.6000000      -0.62804115E-02  -0.10048658E-01  -0.16077853E-01  -0.25724565E-01   0.38620304        11224.754
  1.6500000      -0.11298885E-01  -0.18643160E-01  -0.30761214E-01  -0.50756002E-01   0.39322535        11225.373
  1.7000000      -0.20816391E-01  -0.35387865E-01  -0.60159371E-01  -0.10227093       0.40022481        11226.011
  1.7500000      -0.25278953E-01  -0.44238168E-01  -0.77416793E-01  -0.13547939       0.40720099        11226.668
  1.8000000      -0.29083552E-01  -0.52350394E-01  -0.94230710E-01  -0.16961528       0.41415350        11227.344
  1.8500000      -0.29238736E-01  -0.54091662E-01  -0.10006957      -0.18512871       0.42108192        11228.040
  1.9000000      -0.24217710E-01  -0.46013649E-01  -0.87425933E-01  -0.16610927       0.42798586        11228.754
  1.9500000      -0.12808368E-01  -0.24976318E-01  -0.48703820E-01  -0.94972448E-01   0.43486492        11229.487
  2.0000000      -0.10892959E-02  -0.21785918E-02  -0.43571836E-02  -0.87143672E-02   0.44171870        11230.240
  2.0500000       0.14993223E-01   0.30736106E-01   0.63009018E-01   0.12916849       0.44854679        11231.011
  2.1000000       0.30328565E-01   0.63689987E-01   0.13374897       0.28087284       0.45534880        11231.802
  2.1500000       0.37074100E-01   0.79709315E-01   0.17137503       0.36845631       0.46212433        11232.612
  2.2000000       0.35679891E-01   0.78495761E-01   0.17269067       0.37991948       0.46887300        11233.440
  2.2500000       0.20805671E-01   0.46812759E-01   0.10532871       0.23698959       0.47559440        11234.288
  2.3000000      -0.19023225E-02  -0.43753418E-02  -0.10063286E-01  -0.23145558E-01   0.48228815        11235.155
  2.3500000      -0.24708239E-01  -0.58064361E-01  -0.13645125      -0.32066043       0.48895385        11236.041
  2.4000000      -0.39581336E-01  -0.94995205E-01  -0.22798849      -0.54717238       0.49559113        11236.946
  2.4500000      -0.44815442E-01  -0.10979783      -0.26900469      -0.65906150       0.50219960        11237.869
  2.5000000      -0.46768942E-01  -0.11692235      -0.29230588      -0.73076471       0.50877886        11238.812
  2.5500000      -0.46585441E-01  -0.11879287      -0.30292183      -0.77245066       0.51532854        11239.774
  2.6000000      -0.41471299E-01  -0.10782538      -0.28034598      -0.72889954       0.52184826        11240.755
  2.6500000      -0.29855589E-01  -0.79117312E-01  -0.20966088      -0.55560132       0.52833763        11241.756
  2.7000000      -0.15095508E-01  -0.40757871E-01  -0.11004625      -0.29712488       0.53479629        11242.775
  2.7500000       0.15222996E-02   0.41863238E-02   0.11512390E-01   0.31659074E-01   0.54122385        11243.813
  2.8000000       0.19831781E-01   0.55528987E-01   0.15548116       0.43534726       0.54761994        11244.870
  2.8500000       0.33976481E-01   0.96832970E-01   0.27597396       0.78652580       0.55398419        11245.947
  2.9000000       0.39895073E-01   0.11569571       0.33551756       0.97300093       0.56031623        11247.042
  2.9500000       0.35714857E-01   0.10535883       0.31080854       0.91688520       0.56661569        11248.156
  3.0000000       0.25462603E-01   0.76387809E-01   0.22916343       0.68749028       0.57288221        11249.290
  3.0500000       0.14549688E-01   0.44376549E-01   0.13534847       0.41281284       0.57911541        11250.442
  3.1000000       0.31196284E-02   0.96708479E-02   0.29979629E-01   0.92936849E-01   0.58531495        11251.614
  3.1500000      -0.50460709E-02  -0.15895123E-01  -0.50069639E-01  -0.15771936       0.59148045        11252.805
  3.2000000      -0.95673714E-02  -0.30615588E-01  -0.97969883E-01  -0.31350363       0.59761156        11254.014
  3.2500000      -0.11652083E-01  -0.37869268E-01  -0.12307512      -0.39999415       0.60370792        11255.243
  3.3000000      -0.13948642E-01  -0.46030520E-01  -0.15190072      -0.50127236       0.60976919        11256.491
  3.3500000      -0.16892442E-01  -0.56589681E-01  -0.18957543      -0.63507769       0.61579499        11257.758
  3.4000000      -0.23022172E-01  -0.78275385E-01  -0.26613631      -0.90486345       0.62178500        11259.043
  3.4500000      -0.29088460E-01  -0.10035519      -0.34622539       -1.1944776       0.62773885        11260.348
  3.5000000      -0.33235269E-01  -0.11632344      -0.40713204       -1.4249621       0.63365620        11261.672
  3.5500000      -0.31838204E-01  -0.11302562      -0.40124096       -1.4244054       0.63953671        11263.015
  3.6000000      -0.24655962E-01  -0.88761464E-01  -0.31954127       -1.1503486       0.64538003        11264.377
  3.6500000      -0.14500809E-01  -0.52927954E-01  -0.19318703      -0.70513267       0.65118583        11265.759
  3.7000000      -0.57918995E-02  -0.21430028E-01  -0.79291105E-01  -0.29337709       0.65695376        11267.159
  3.7500000       0.46601359E-02   0.17475510E-01   0.65533162E-01   0.24574936       0.66268350        11268.578
  3.8000000       0.14252523E-01   0.54159587E-01   0.20580643       0.78206443       0.66837471        11270.016
  3.8500000       0.22619433E-01   0.87084817E-01   0.33527654        1.2908147       0.67402705        11271.473
  3.9000000       0.28679739E-01   0.11185098       0.43621884        1.7012535       0.67964021        11272.950
  3.9500000       0.31679386E-01   0.12513358       0.49427763        1.9523966       0.68521385        11274.445
  4.0000000       0.32697832E-01   0.13079133       0.52316531        2.0926612       0.69074764        11275.960
  4.0500000       0.30153255E-01   0.12212068       0.49458877        2.0030845       0.69624128        11277.493
  4.1000000       0.26335239E-01   0.10797448       0.44269536        1.8150510       0.70169443        11279.046
  4.1500000       0.22915281E-01   0.95098417E-01   0.39465843        1.6378325       0.70710678        11280.617
  4.2000000       0.19900213E-01   0.83580894E-01   0.35103976        1.4743670       0.71247802        11282.208
  4.2500000       0.17237590E-01   0.73259757E-01   0.31135397        1.3232544       0.71780783        11283.818
  4.3000000       0.14502617E-01   0.62361254E-01   0.26815339        1.1530596       0.72309591        11285.447
  4.3500000       0.14036132E-01   0.61057175E-01   0.26559871        1.1553544       0.72834194        11287.094
  4.4000000       0.13050957E-01   0.57424210E-01   0.25266652        1.1117327       0.73354563        11288.761
  4.4500000       0.11662635E-01   0.51898725E-01   0.23094932        1.0277245       0.73870666        11290.447
  4.5000000       0.82718693E-02   0.37223412E-01   0.16750535       0.75377409       0.74382474        11292.152
  4.5500000       0.20529583E-02   0.93409601E-02   0.42501368E-01   0.19338123       0.74889958        11293.876
  4.6000000      -0.45442862E-02  -0.20903717E-01  -0.96157096E-01  -0.44232264       0.75393087        11295.619
  4.6500000      -0.11247428E-01  -0.52300541E-01  -0.24319752       -1.1308684       0.75891832        11297.381
  4.7000000      -0.17217849E-01  -0.80923889E-01  -0.38034228       -1.7876087       0.76386165        11299.163
  4.7500000      -0.23634295E-01  -0.11226290      -0.53324879       -2.5329318       0.76876056        11300.963
  4.8000000      -0.28261877E-01  -0.13565701      -0.65115364       -3.1255375       0.77361478        11302.782
  4.8500000      -0.32495954E-01  -0.15760538      -0.76438609       -3.7072725       0.77842401        11304.620
  4.9000000      -0.34996490E-01  -0.17148280      -0.84026572       -4.1173020       0.78318798        11306.478
  4.9500000      -0.34768861E-01  -0.17210586      -0.85192402       -4.2170239       0.78790642        11308.354
  5.0000000      -0.29586795E-01  -0.14793398      -0.73966988       -3.6983494       0.79257904        11310.250
  5.0500000      -0.22811774E-01  -0.11519946      -0.58175726       -2.9378742       0.79720558        11312.164
  5.1000000      -0.13814604E-01  -0.70454479E-01  -0.35931784       -1.8325210       0.80178577        11314.098
  5.1500000      -0.59719662E-02  -0.30755626E-01  -0.15839147      -0.81571609       0.80631934        11316.050
  5.2000000       0.30099754E-03   0.15651872E-02   0.81389736E-02   0.42322663E-01   0.81080603        11318.022
  5.2500000       0.45110406E-02   0.23682963E-01   0.12433556       0.65276167       0.81524557        11320.013
  5.3000000       0.67974779E-02   0.36026633E-01   0.19094115        1.0119881       0.81963771        11322.022
  5.3500000       0.88490041E-02   0.47342172E-01   0.25328062        1.3550513       0.82398220        11324.051
  5.4000000       0.92364165E-02   0.49876649E-01   0.26933390        1.4544031       0.82827877        11326.099
  5.4500000       0.84496249E-02   0.46050456E-01   0.25097498        1.3678137       0.83252719        11328.166
  5.5000000       0.80423538E-02   0.44232946E-01   0.24328120        1.3380466       0.83672720        11330.252
  5.5500000       0.62318232E-02   0.34586619E-01   0.19195573        1.0653543       0.84087856        11332.357
  5.6000000       0.50557097E-02   0.28311975E-01   0.15854706       0.88786352       0.84498102        11334.481
  5.6500000       0.57122082E-02   0.32273976E-01   0.18234797        1.0302660       0.84903436        11336.624
  5.7000000       0.93965455E-02   0.53560310E-01   0.30529376        1.7401745       0.85303833        11338.786
  5.7500000       0.14436757E-01   0.83011354E-01   0.47731529        2.7445629       0.85699271        11340.968
  5.8000000       0.20906099E-01   0.12125537       0.70328117        4.0790308       0.86089725        11343.168
  5.8500000       0.25909221E-01   0.15156894       0.88667830        5.1870681       0.86475174        11345.387
  5.9000000       0.28160376E-01   0.16614622       0.98026269        5.7835499       0.86855594        11347.626
  5.9500000       0.26994646E-01   0.16061814       0.95567796        5.6862839       0.87230965        11349.883
  6.0000000       0.23725610E-01   0.14235366       0.85412197        5.1247318       0.87601264        11352.159
  6.0500000       0.16642183E-01   0.10068521       0.60914551        3.6853303       0.87966469        11354.455
  6.1000000       0.71294403E-02   0.43489586E-01   0.26528647        1.6182475       0.88326560        11356.770
  6.1500000      -0.61497310E-02  -0.37820846E-01  -0.23259820       -1.4304789       0.88681515        11359.103
  6.2000000      -0.18891542E-01  -0.11712756      -0.72619089       -4.5023835       0.89031313        11361.456
  6.2500000      -0.26307715E-01  -0.16442322       -1.0276451       -6.4227821       0.89375935        11363.828
  6.3000000      -0.31816918E-01  -0.20044658       -1.2628135       -7.9557249       0.89715361        11366.218
  6.3500000      -0.32004865E-01  -0.20323090       -1.2905162       -8.1947778       0.90049570        11368.628
  6.4000000      -0.29197965E-01  -0.18686697       -1.1959486       -7.6540712       0.90378543        11371.057
  6.4500000      -0.24042944E-01  -0.15507699       -1.0002466       -6.4515904       0.90702261        11373.505
  6.5000000      -0.17541645E-01  -0.11402069      -0.74113449       -4.8173742       0.91020705        11375.972
  6.5500000      -0.11822019E-01  -0.77434225E-01  -0.50719418       -3.3221219       0.91333858        11378.458
  6.6000000      -0.64757896E-02  -0.42740211E-01  -0.28208539       -1.8617636       0.91641699        11380.963
  6.6500000      -0.21973810E-02  -0.14612584E-01  -0.97173683E-01  -0.64620500       0.91944212        11383.487
  6.7000000       0.15045916E-02   0.10080764E-01   0.67541116E-01   0.45252548       0.92241380        11386.030
  6.7500000       0.44766774E-02   0.30217573E-01   0.20396862        1.3767882       0.92533184        11388.592
  6.8000000       0.66962181E-02   0.45534283E-01   0.30963313        2.1055053       0.92819608        11391.174
  6.8500000       0.81594046E-02   0.55891922E-01   0.38285966        2.6225887       0.93100634        11393.774
  6.9000000       0.81659896E-02   0.56345328E-01   0.38878277        2.6826011       0.93376248        11396.393
  6.9500000       0.60213264E-02   0.41848218E-01   0.29084512        2.0213736       0.93646433        11399.032
  7.0000000       0.51764701E-02   0.36235291E-01   0.25364703        1.7755292       0.93911172        11401.689
  7.0500000       0.46269468E-02   0.32619975E-01   0.22997082        1.6212943       0.94170451        11404.366
  7.1000000       0.82002835E-02   0.58222013E-01   0.41337629        2.9349717       0.94424255        11407.061
  7.1500000       0.14161188E-01   0.10125250       0.72395534        5.1762807       0.94672568        11409.776
  7.2000000       0.20920004E-01   0.15062403        1.0844930        7.8083495       0.94915377        11412.510
  7.2500000       0.26523283E-01   0.19229380        1.3941300        10.107443       0.95152667        11415.262
  7.3000000       0.26617865E-01   0.19431042        1.4184660        10.354802       0.95384425        11418.034
  7.3500000       0.20965231E-01   0.15409445        1.1325942        8.3245674       0.95610637        11420.825
  7.4000000       0.10296460E-01   0.76193804E-01   0.56383415        4.1723727       0.95831289        11423.635
  7.4500000       0.49428240E-03   0.36824039E-02   0.27433909E-01   0.20438262       0.96046370        11426.464
  7.5000000      -0.70956672E-02  -0.53217504E-01  -0.39913128       -2.9934846       0.96255866        11429.312
  7.5500000      -0.11732431E-01  -0.88579856E-01  -0.66877791       -5.0492733       0.96459765        11432.179
  7.6000000      -0.13971659E-01  -0.10618461      -0.80700300       -6.1332228       0.96658056        11435.065
  7.6500000      -0.15510623E-01  -0.11865627      -0.90772045       -6.9440615       0.96850726        11437.970
  7.7000000      -0.16355675E-01  -0.12593870      -0.96972796       -7.4669053       0.97037766        11440.894
  7.7500000      -0.15934017E-01  -0.12348863      -0.95703688       -7.4170358       0.97219163        11443.837
  7.8000000      -0.16389475E-01  -0.12783791      -0.99713566       -7.7776582       0.97394908        11446.799
  7.8500000      -0.16931193E-01  -0.13290987       -1.0433424       -8.1902382       0.97564989        11449.781
  7.9000000      -0.17099054E-01  -0.13508253       -1.0671520       -8.4305006       0.97729398        11452.781
  7.9500000      -0.16483444E-01  -0.13104338       -1.0417949       -8.2822691       0.97888125        11455.801
  8.0000000      -0.14785410E-01  -0.11828328      -0.94626622       -7.5701298       0.98041160        11458.839
  8.0500000      -0.10881698E-01  -0.87597666E-01  -0.70516121       -5.6765477       0.98188494        11461.896
  8.1000000      -0.46544605E-02  -0.37701130E-01  -0.30537915       -2.4735712       0.98330120        11464.973
  8.1500000       0.28838542E-02   0.23503412E-01   0.19155281        1.5611554       0.98466028        11468.069
  8.2000000       0.10339944E-01   0.84787542E-01   0.69525784        5.7011143       0.98596211        11471.183
  8.2500000       0.17295527E-01   0.14268809        1.1771768        9.7117084       0.98720661        11474.317
  8.3000000       0.22183302E-01   0.18412141        1.5282077        12.684124       0.98839371        11477.470
  8.3500000       0.24486923E-01   0.20446581        1.7072895        14.255867       0.98952334        11480.642
  8.4000000       0.24381373E-01   0.20480354        1.7203497        14.450938       0.99059544        11483.832
  8.4500000       0.22363965E-01   0.18897550        1.5968430        13.493323       0.99160994        11487.042
  8.5000000       0.17087163E-01   0.14524088        1.2345475        10.493654       0.99256679        11490.271
  8.5500000       0.10322055E-01   0.88253571E-01   0.75456803        6.4515567       0.99346592        11493.519
  8.6000000       0.23048501E-02   0.19821711E-01   0.17046672        1.4660138       0.99430729        11496.786
  8.6500000      -0.56822843E-02  -0.49151760E-01  -0.42516272       -3.6776575       0.99509085        11500.073
  8.7000000      -0.11542993E-01  -0.10042404      -0.87368915       -7.6010956       0.99581655        11503.378
  8.7500000      -0.14580861E-01  -0.12758254       -1.1163472       -9.7680380       0.99648435        11506.702
  8.8000000      -0.14581375E-01  -0.12831610       -1.1291817       -9.9367988       0.99709421        11510.045
  8.8500000      -0.13259014E-01  -0.11734227       -1.0384791       -9.1905400       0.99764609        11513.407
  8.9000000      -0.93303549E-02  -0.83040159E-01  -0.73905742       -6.5776110       0.99813997        11516.789
  8.9500000      -0.61113343E-02  -0.54696442E-01  -0.48953316       -4.3813217       0.99857581        11520.189
  9.0000000      -0.54326672E-02  -0.48894005E-01  -0.44004605       -3.9604144       0.99895359        11523.609
  9.0500000      -0.81404665E-02  -0.73671222E-01  -0.66672456       -6.0338573       0.99927329        11527.047
  9.1000000      -0.11882734E-01  -0.10813288      -0.98400916       -8.9544834       0.99953488        11530.505
  9.1500000      -0.12919070E-01  -0.11820949       -1.0816168       -9.8967941       0.99973836        11533.981
  9.2000000      -0.10915401E-01  -0.10042169      -0.92387953       -8.4996917       0.99988371        11537.477
  9.2500000      -0.81342131E-02  -0.75241471E-01  -0.69598361       -6.4378484       0.99997093        11540.992
  9.3000000      -0.33443937E-02  -0.31102862E-01  -0.28925661       -2.6900865        1.0000000        11544.526
  9.3500000       0.12251035E-02   0.11454717E-01   0.10710161        1.0014000       0.99997093        11548.078
  9.4000000       0.82137452E-02   0.77209205E-01   0.72576653        6.8222053       0.99988371        11551.650
  9.4500000       0.14015037E-01   0.13244210        1.2515778        11.827410       0.99973836        11555.241
  9.5000000       0.18829483E-01   0.17888008        1.6993608        16.143928       0.99953488        11558.851
  9.5500000       0.21811974E-01   0.20830435        1.9893065        18.997877       0.99927329        11562.480
  9.6000000       0.22737507E-01   0.21828007        2.0954886        20.116691       0.99895359        11566.128
  9.6500000       0.18793560E-01   0.18135785        1.7501033        16.888497       0.99857581        11569.795
  9.7000000       0.12247860E-01   0.11880424        1.1524011        11.178291       0.99813997        11573.481
  9.7500000       0.40611726E-02   0.39596433E-01   0.38606522        3.7641359       0.99764609        11577.187
  9.8000000      -0.38881668E-02  -0.38104034E-01  -0.37341954       -3.6595115       0.99709421        11580.911
  9.8500000      -0.94206762E-02  -0.92793660E-01  -0.91401755       -9.0030729       0.99648435        11584.654
  9.9000000      -0.11814212E-01  -0.11696070       -1.1579109       -11.463318       0.99581655        11588.417
  9.9500000      -0.11739833E-01  -0.11681134       -1.1622728       -11.564615       0.99509085        11592.198
  10.000000      -0.99158382E-02  -0.99158382E-01  -0.99158382       -9.9158382       0.99430729        11595.998
  10.050000      -0.67105250E-02  -0.67440776E-01  -0.67777980       -6.8116870       0.99346592        11599.818
  10.100000      -0.34779104E-02  -0.35126895E-01  -0.35478164       -3.5832945       0.99256679        11603.656
  10.150000      -0.16898146E-02  -0.17151618E-01  -0.17408892       -1.7670026       0.99160994        11607.514
  10.200000       0.26008616E-03   0.26528788E-02   0.27059364E-01   0.27600551       0.99059544        11611.391
  10.250000      -0.36061159E-03  -0.36962688E-02  -0.37886755E-01  -0.38833924       0.98952334        11615.286
  10.300000      -0.29630197E-02  -0.30519103E-01  -0.31434676       -3.2377717       0.98839371        11619.201
  10.350000      -0.69350717E-02  -0.71777992E-01  -0.74290222       -7.6890380       0.98720661        11623.135
  10.400000      -0.91920090E-02  -0.95596893E-01  -0.99420769       -10.339760       0.98596211        11627.088
  10.450000      -0.72212976E-02  -0.75462560E-01  -0.78858375       -8.2407002       0.98466028        11631.060
  10.500000      -0.29935004E-02  -0.31431754E-01  -0.33003342       -3.4653509       0.98330120        11635.051
  10.550000       0.17315120E-02   0.18267451E-01   0.19272161        2.0332130       0.98188494        11639.061
  10.600000       0.52446150E-02   0.55592919E-01   0.58928494        6.2464203       0.98041160        11643.090
  10.650000       0.71487379E-02   0.76134058E-01   0.81082772        8.6353152       0.97888125        11647.138
  10.700000       0.80387058E-02   0.86014152E-01   0.92035143        9.8477603       0.97729398        11651.205
  10.750000       0.92717347E-02   0.99671148E-01    1.0714648        11.518247       0.97564989        11655.291
  10.800000       0.11574569E-01   0.12500534        1.3500577        14.580623       0.97394908        11659.397
  10.850000       0.13565450E-01   0.14718514        1.5969587        17.327002       0.97219163        11663.521
  10.900000       0.14337362E-01   0.15627724        1.7034219        18.567299       0.97037766        11667.664
  10.950000       0.11331815E-01   0.12408337        1.3587129        14.877906       0.96850726        11671.827
  11.000000       0.65215353E-02   0.71736888E-01   0.78910577        8.6801634       0.96658056        11676.008
  11.050000      -0.63272855E-03  -0.69916505E-02  -0.77257738E-01  -0.85369800       0.96459765        11680.209
  11.100000      -0.84623832E-02  -0.93932454E-01   -1.0426502       -11.573418       0.96255866        11684.428
  11.150000      -0.15189501E-01  -0.16936294       -1.8883968       -21.055624       0.96046370        11688.667
  11.200000      -0.18305067E-01  -0.20501675       -2.2961876       -25.717301       0.95831289        11692.924
  11.250000      -0.17593107E-01  -0.19792245       -2.2266276       -25.049560       0.95610637        11697.201
  11.300000      -0.15062257E-01  -0.17020351       -1.9232996       -21.733286       0.95384425        11701.497
  11.350000      -0.12062481E-01  -0.13690916       -1.5539190       -17.636981       0.95152667        11705.812
  11.400000      -0.85680437E-02  -0.97675698E-01   -1.1135030       -12.693934       0.94915377        11710.146
  11.450000      -0.54952515E-02  -0.62920630E-01  -0.72044121       -8.2490518       0.94672568        11714.498
  11.500000      -0.32762371E-02  -0.37676726E-01  -0.43328235       -4.9827470       0.94424255        11718.870
  11.550000      -0.11087906E-02  -0.12806532E-01  -0.14791544       -1.7084233       0.94170451        11723.261
  11.600000       0.13194814E-02   0.15305985E-01   0.17754942        2.0595733       0.93911172        11727.671
  11.650000       0.33664033E-02   0.39218599E-01   0.45689668        5.3228463       0.93646433        11732.101
  11.700000       0.52704465E-02   0.61664224E-01   0.72147142        8.4412156       0.93376248        11736.549
  11.750000       0.70335671E-02   0.82644413E-01   0.97107185        11.410094       0.93100634        11741.016
  11.800000       0.83775935E-02   0.98855604E-01    1.1664961        13.764654       0.92819608        11745.502
  11.850000       0.10490643E-01   0.12431412        1.4731223        17.456499       0.92533184        11750.007
  11.900000       0.11568536E-01   0.13766558        1.6382204        19.494823       0.92241380        11754.532
  11.950000       0.12090614E-01   0.14448284        1.7265699        20.632511       0.91944212        11759.075
  12.000000       0.10883484E-01   0.13060180        1.5672216        18.806660       0.91641699        11763.638
  12.050000       0.81865128E-02   0.98647480E-01    1.1887021        14.323861       0.91333858        11768.219
  12.100000       0.52660847E-02   0.63719625E-01   0.77100746        9.3291903       0.91020705        11772.820
  12.150000       0.20664307E-02   0.25107134E-01   0.30505167        3.7063778       0.90702261        11777.439
  12.200000      -0.60298114E-03  -0.73563700E-02  -0.89747714E-01   -1.0949221       0.90378543        11782.078
  12.250000      -0.14033659E-02  -0.17191232E-01  -0.21059259       -2.5797592       0.90049570        11786.736
  12.300000      -0.22596347E-02  -0.27793507E-01  -0.34186014       -4.2048797       0.89715361        11791.412
  12.350000      -0.39852037E-02  -0.49217266E-01  -0.60783324       -7.5067405       0.89375935        11796.108
  12.400000      -0.60001917E-02  -0.74402377E-01  -0.92258948       -11.440110       0.89031313        11800.823
  12.450000      -0.81072339E-02  -0.10093506       -1.2566415       -15.645187       0.88681515        11805.557
  12.500000      -0.98047357E-02  -0.12255920       -1.5319900       -19.149874       0.88326560        11810.310
  12.550000      -0.10042693E-01  -0.12603579       -1.5817492       -19.850952       0.87966469        11815.082
  12.600000      -0.85984103E-02  -0.10833997       -1.3650836       -17.200054       0.87601264        11819.873
  12.650000      -0.79746682E-02  -0.10087955       -1.2761263       -16.142998       0.87230965        11824.683
  12.700000      -0.59264093E-02  -0.75265398E-01  -0.95587055       -12.139556       0.86855594        11829.512
  12.750000      -0.48505357E-02  -0.61844331E-01  -0.78851521       -10.053569       0.86475174        11834.361
  12.800000      -0.19979506E-02  -0.25573768E-01  -0.32734423       -4.1900061       0.86089725        11839.228
  12.850000       0.16650458E-03   0.21395838E-02   0.27493652E-01   0.35329343       0.85699271        11844.114
  12.900000       0.28241891E-02   0.36432040E-01   0.46997331        6.0626557       0.85303833        11849.019
  12.950000       0.47087270E-02   0.60978015E-01   0.78966530        10.226166       0.84903436        11853.944
  13.000000       0.64081177E-02   0.83305530E-01    1.0829719        14.078635       0.84498102        11858.887
  13.050000       0.83598759E-02   0.10909638        1.4237078        18.579386       0.84087856        11863.850
  13.100000       0.94858440E-02   0.12426456        1.6278657        21.325041       0.83672720        11868.831
  13.150000       0.98167745E-02   0.12909059        1.6975412        22.322667       0.83252719        11873.832
  13.200000       0.94846152E-02   0.12519692        1.6525993        21.814311       0.82827877        11878.852
  13.250000       0.84668467E-02   0.11218572        1.4864608        19.695605       0.82398220        11883.890
  13.300000       0.47870268E-02   0.63667457E-01   0.84677718        11.262136       0.81963771        11888.948
  13.350000       0.10424338E-02   0.13916491E-01   0.18578516        2.4802319       0.81524557        11894.025
  13.400000      -0.23598960E-02  -0.31622606E-01  -0.42374292       -5.6781551       0.81080603        11899.121
  13.450000      -0.30941777E-02  -0.41616690E-01  -0.55974448       -7.5285633       0.80631934        11904.236
  13.500000      -0.22007640E-02  -0.29710314E-01  -0.40108924       -5.4147047       0.80178577        11909.370
  13.550000      -0.13329929E-02  -0.18062054E-01  -0.24474083       -3.3162383       0.79720558        11914.523
  13.600000      -0.13580014E-02  -0.18468819E-01  -0.25117594       -3.4159927       0.79257904        11919.695
  13.650000      -0.17075502E-02  -0.23308060E-01  -0.31815502       -4.3428160       0.78790642        11924.886
  13.700000      -0.32803751E-02  -0.44941139E-01  -0.61569360       -8.4350023       0.78318798        11930.096
  13.750000      -0.65315544E-02  -0.89808873E-01   -1.2348720       -16.979490       0.77842401        11935.325
  13.800000      -0.10093558E-01  -0.13929110       -1.9222172       -26.526597       0.77361478        11940.573
  13.850000      -0.11380883E-01  -0.15762523       -2.1831094       -30.236065       0.76876056        11945.841
  13.900000      -0.11078382E-01  -0.15398951       -2.1404541       -29.752313       0.76386165        11951.127
  13.950000      -0.98063376E-02  -0.13679841       -1.9083378       -26.621313       0.75891832        11956.432
  14.000000      -0.84470749E-02  -0.11825905       -1.6556267       -23.178774       0.75393087        11961.757
  14.050000      -0.43872343E-02  -0.61640641E-01  -0.86605101       -12.168017       0.74889958        11967.100
  14.100000      -0.65853650E-04  -0.92853647E-03  -0.13092364E-01  -0.18460234       0.74382474        11972.463
  14.150000       0.36702585E-02   0.51934158E-01   0.73486834        10.398387       0.73870666        11977.845
  14.200000       0.72586119E-02   0.10307229        1.4636265        20.783496       0.73354563        11983.245
  14.250000       0.10782900E-01   0.15365633        2.1896027        31.201838       0.72834194        11988.665
  14.300000       0.12673788E-01   0.18123516        2.5916628        37.060778       0.72309591        11994.104
  14.350000       0.12799634E-01   0.18367475        2.6357327        37.822764       0.71780783        11999.561
  14.400000       0.12065866E-01   0.17374847        2.5019779        36.028482       0.71247802        12005.038
  14.450000       0.94754661E-02   0.13692048        1.9785010        28.589340       0.70710678        12010.534
  14.500000       0.57159147E-02   0.82880763E-01    1.2017711        17.425680       0.70169443        12016.049
  14.550000       0.20214237E-02   0.29411715E-01   0.42794045        6.2265335       0.69624128        12021.583
  14.600000      -0.46266053E-03  -0.67548438E-02  -0.98620719E-01   -1.4398625       0.69074764        12027.136
  14.650000      -0.28034273E-02  -0.41070209E-01  -0.60167857       -8.8145910       0.68521385        12032.708
  14.700000      -0.39610700E-02  -0.58227729E-01  -0.85594762       -12.582430       0.67964021        12038.299
  14.750000      -0.35718588E-02  -0.52684918E-01  -0.77710254       -11.462262       0.67402705        12043.910
  14.800000      -0.27079520E-02  -0.40077690E-01  -0.59314981       -8.7786172       0.66837471        12049.539
  14.850000      -0.24559239E-02  -0.36470470E-01  -0.54158647       -8.0425591       0.66268350        12055.187
  14.900000      -0.27848278E-02  -0.41493934E-01  -0.61825962       -9.2120683       0.65695376        12060.855
  14.950000      -0.37772781E-02  -0.56470307E-01  -0.84423110       -12.621255       0.65118583        12066.541
  15.000000      -0.44078899E-02  -0.66118349E-01  -0.99177524       -14.876629       0.64538003        12072.246
  15.050000      -0.52537570E-02  -0.79069043E-01   -1.1899891       -17.909336       0.63953671        12077.971
  15.100000      -0.59233780E-02  -0.89443008E-01   -1.3505894       -20.393900       0.63365620        12083.714
  15.150000      -0.60100409E-02  -0.91052119E-01   -1.3794396       -20.898510       0.62773885        12089.477
  15.200000      -0.53670100E-02  -0.81578553E-01   -1.2399940       -18.847909       0.62178500        12095.259
  15.250000      -0.42982379E-02  -0.65548129E-01  -0.99960896       -15.244037       0.61579499        12101.059
  15.300000      -0.27512994E-02  -0.42094881E-01  -0.64405167       -9.8539906       0.60976919        12106.879
  15.350000      -0.13183423E-02  -0.20236555E-01  -0.31063112       -4.7681877       0.60370792        12112.718
  15.400000       0.87857573E-03   0.13530066E-01   0.20836302        3.2087905       0.59761156        12118.576
  15.450000       0.35462598E-02   0.54789715E-01   0.84650109        13.078442       0.59148045        12124.453
  15.500000       0.49662277E-02   0.76976529E-01    1.1931362        18.493611       0.58531495        12130.349
  15.550000       0.49958946E-02   0.77686161E-01    1.2080198        18.784708       0.57911541        12136.264
  15.600000       0.58636016E-02   0.91472185E-01    1.4269661        22.260671       0.57288221        12142.198
  15.650000       0.69274787E-02   0.10841504        1.6966954        26.553283       0.56661569        12148.151
  15.700000       0.61710428E-02   0.96885371E-01    1.5211003        23.881275       0.56031623        12154.123
  15.750000       0.50377507E-02   0.79344573E-01    1.2496770        19.682413       0.55398419        12160.114
  15.800000       0.48725811E-02   0.76986781E-01    1.2163911        19.218980       0.54761994        12166.124
  15.850000       0.40934744E-02   0.64881570E-01    1.0283729        16.299710       0.54122385        12172.154
  15.900000       0.23016518E-02   0.36596264E-01   0.58188059        9.2519015       0.53479629        12178.202
  15.950000       0.81554708E-03   0.13007976E-01   0.20747722        3.3092616       0.52833763        12184.269
  16.000000      -0.19709477E-02  -0.31535163E-01  -0.50456261       -8.0730018       0.52184826        12190.356
  16.050000      -0.36597281E-02  -0.58738637E-01  -0.94275512       -15.131220       0.51532854        12196.461
  16.100000      -0.49211401E-02  -0.79230355E-01   -1.2756087       -20.537300       0.50877886        12202.586
  16.150000      -0.45007910E-02  -0.72687775E-01   -1.1739076       -18.958607       0.50219960        12208.730
  16.200000      -0.46115011E-02  -0.74706317E-01   -1.2102423       -19.605926       0.49559113        12214.892
  16.250000      -0.39272294E-02  -0.63817478E-01   -1.0370340       -16.851803       0.48895385        12221.074
  16.300000      -0.42120092E-02  -0.68655750E-01   -1.1190887       -18.241146       0.48228815        12227.275
  16.350000      -0.36688539E-02  -0.59985761E-01  -0.98076720       -16.035544       0.47559440        12233.494
  16.400000      -0.32621109E-02  -0.53498619E-01  -0.87737736       -14.388989       0.46887300        12239.733
  16.450000      -0.26923894E-02  -0.44289806E-01  -0.72856730       -11.984932       0.46212433        12245.991
  16.500000      -0.22921672E-02  -0.37820759E-01  -0.62404252       -10.296702       0.45534880        12252.268
  16.550000      -0.21061030E-02  -0.34856005E-01  -0.57686689       -9.5471470       0.44854679        12258.564
  16.600000      -0.57164764E-04  -0.94893508E-03  -0.15752322E-01  -0.26148855       0.44171870        12264.879
  16.650000       0.18095628E-02   0.30129220E-01   0.50165152        8.3524978       0.43486492        12271.213
  16.700000       0.28389353E-02   0.47410219E-01   0.79175066        13.222236       0.42798586        12277.566
  16.750000       0.43916636E-02   0.73560365E-01    1.2321361        20.638280       0.42108192        12283.939
  16.800000       0.50974342E-02   0.85636894E-01    1.4386998        24.170157       0.41415350        12290.330
  16.850000       0.49183628E-02   0.82874413E-01    1.3964339        23.529911       0.40720099        12296.740
  16.900000       0.40352086E-02   0.68195025E-01    1.1524959        19.477181       0.40022481        12303.170
  16.950000       0.25977970E-02   0.44032659E-01   0.74635358        12.650693       0.39322535        12309.618
  17.000000       0.17646388E-02   0.29998860E-01   0.50998061        8.6696704       0.38620304        12316.085
  17.050000       0.18880383E-02   0.32191053E-01   0.54885745        9.3580195       0.37915826        12322.572
  17.100000       0.18732863E-02   0.32033195E-01   0.54776763        9.3668265       0.37209145        12329.077
  17.150000       0.22405415E-02   0.38425287E-01   0.65899366        11.301741       0.36500299        12335.602
  17.200000       0.21191551E-02   0.36449467E-01   0.62693084        10.783210       0.35789332        12342.146
  17.250000       0.11987780E-02   0.20678920E-01   0.35671137        6.1532711       0.35076283        12348.708
  17.300000      -0.50342215E-03  -0.87092033E-02  -0.15066922       -2.6065774       0.34361196        12355.290
  17.350000      -0.24336375E-02  -0.42223611E-01  -0.73257965       -12.710257       0.33644110        12361.891
  17.400000      -0.42737988E-02  -0.74364100E-01   -1.2939353       -22.514475       0.32925068        12368.511
  17.450000      -0.47060558E-02  -0.82120673E-01   -1.4330057       -25.005950       0.32204111        12375.150
  17.500000      -0.58478711E-02  -0.10233774       -1.7909105       -31.340934       0.31481282        12381.808
  17.550000      -0.65033217E-02  -0.11413329       -2.0030393       -35.153340       0.30756623        12388.485
  17.600000      -0.59701620E-02  -0.10507485       -1.8493174       -32.547986       0.30030176        12395.181
  17.650000      -0.38421751E-02  -0.67814391E-01   -1.1969240       -21.125709       0.29301982        12401.896
  17.700000      -0.21869798E-02  -0.38709543E-01  -0.68515892       -12.127313       0.28572084        12408.630
  17.750000      -0.16636596E-03  -0.29529957E-02  -0.52415674E-01  -0.93037821       0.27840526        12415.383
  17.800000       0.11647267E-02   0.20732134E-01   0.36903199        6.5687695       0.27107348        12422.155
  17.850000       0.16227868E-02   0.28966744E-01   0.51705639        9.2294565       0.26372595        12428.947
  17.900000       0.21292072E-02   0.38112810E-01   0.68221929        12.211725       0.25636308        12435.757
  17.950000       0.29442056E-02   0.52848491E-01   0.94863041        17.027916       0.24898530        12442.586
  18.000000       0.26665480E-02   0.47997865E-01   0.86396156        15.551308       0.24159305        12449.435
  18.050000       0.26698620E-02   0.48191009E-01   0.86984771        15.700751       0.23418675        12456.302
  18.100000       0.30775576E-02   0.55703792E-01    1.0082386        18.249119       0.22676683        12463.189
  18.150000       0.32446533E-02   0.58890457E-01    1.0688618        19.399842       0.21933373        12470.094
  18.200000       0.14831614E-02   0.26993538E-01   0.49128240        8.9413396       0.21188788        12477.019
  18.250000      -0.18193379E-03  -0.33202917E-02  -0.60595323E-01   -1.1058646       0.20442970        12483.963
  18.300000       0.28049468E-03   0.51330526E-02   0.93934863E-01    1.7190080       0.19695964        12490.926
  18.350000       0.12739415E-02   0.23376827E-01   0.42896477        7.8715036       0.18947813        12497.907
  18.400000       0.21251938E-02   0.39103567E-01   0.71950563        13.238904       0.18198560        12504.908
  18.450000       0.20508601E-02   0.37838368E-01   0.69811790        12.880275       0.17448249        12511.928
  18.500000       0.11304195E-02   0.20912761E-01   0.38688607        7.1573923       0.16696924        12518.967
  18.550000      -0.64959160E-03  -0.12049924E-01  -0.22352609       -4.1464090       0.15944627        12526.025
  18.600000      -0.78296176E-03  -0.14563089E-01  -0.27087345       -5.0382462       0.15191404        12533.102
  18.650000      -0.14129108E-02  -0.26350787E-01  -0.49144218       -9.1653966       0.14437297        12540.198
  18.700000      -0.17077431E-02  -0.31934797E-01  -0.59718070       -11.167279       0.13682351        12547.313
  18.750000      -0.17346629E-02  -0.32524930E-01  -0.60984244       -11.434546       0.12926609        12554.448
  18.800000      -0.22665428E-02  -0.42611005E-01  -0.80108690       -15.060434       0.12170116        12561.601
  18.850000      -0.23093249E-02  -0.43530775E-01  -0.82055511       -15.467464       0.11412915        12568.773
  18.900000      -0.20702223E-02  -0.39127202E-01  -0.73950412       -13.976628       0.10655050        12575.964
  18.950000      -0.86485702E-03  -0.16389041E-01  -0.31057232       -5.8853454       0.98965659E-01    12583.175
  19.000000       0.60810537E-03   0.11554002E-01   0.21952604        4.1709948       0.91375064E-01    12590.404
  19.050000       0.17443817E-02   0.33230471E-01   0.63304047        12.059421       0.83779156E-01    12597.653
  19.100000       0.13294461E-02   0.25392420E-01   0.48499522        9.2634087       0.76178377E-01    12604.920
  19.150000        0.0000000        0.0000000        0.0000000        0.0000000       0.68573168E-01    12612.207
  19.200000        0.0000000        0.0000000        0.0000000        0.0000000       0.60963973E-01    12619.513
  19.250000        0.0000000        0.0000000        0.0000000        0.0000000       0.53351232E-01    12626.837
  19.300000        0.0000000        0.0000000        0.0000000        0.0000000       0.45735390E-01    12634.181
  19.350000        0.0000000        0.0000000        0.0000000        0.0000000       0.38116888E-01    12641.544
  19.400000        0.0000000        0.0000000        0.0000000        0.0000000       0.30496171E-01    12648.926
  19.450000        0.0000000        0.0000000        0.0000000        0.0000000       0.22873680E-01    12656.326
  19.500000        0.0000000        0.0000000        0.0000000        0.0000000       0.15249859E-01    12663.746
  19.550000        0.0000000        0.0000000        0.0000000        0.0000000       0.76251510E-02    12671.185
  19.600000        0.0000000        0.0000000        0.0000000        0.0000000        0.0000000        12678.643
  19.650000        0.0000000        0.0000000        0.0000000        0.0000000        0.0000000        12686.121
  19.700000        0.0000000        0.0000000        0.0000000        0.0000000        0.0000000        12693.617
  19.750000        0.0000000        0.0000000        0.0000000        0.0000000        0.0000000        12701.132
  19.800000        0.0000000        0.0000000        0.0000000        0.0000000        0.0000000        12708.666
  19.850000        0.0000000        0.0000000        0.0000000        0.0000000        0.0000000        12716.219
  19.900000        0.0000000        0.0000000        0.0000000        0.0000000        0.0000000        12723.792
  19.950000        0.0000000        0.0000000        0.0000000        0.0000000        0.0000000        12731.383
  20.000000        0.0000000        0.0000000        0.0000000        0.0000000        0.0000000        12738.994
  20.050000        0.0000000        0.0000000        0.0000000        0.0000000        0.0000000        12746.623
  20.100000        0.0000000        0.0000000        0.0000000        0.0000000        0.0000000        12754.272
  20.150000        0.0000000        0.0000000        0.0000000        0.0000000        0.0000000        12761.939
  20.200000        0.0000000        0.0000000        0.0000000        0.0000000        0.0000000        12769.626
  20.250000        0.0000000        0.0000000        0.0000000        0.0000000        0.0000000        12777.332
  20.300000        0.0000000        0.0000000        0.0000000        0.0000000        0.0000000        12785.056
